Sample:	'1
File name:	GF1.FD3
Run Date:	13:17:32, 06/01/2016
Operator:	elisabeth
Comment:	'

Instrument
Model:	F-7000 FL Spectrophotometer
Serial Number:	1910-003
ROM Version:	5J14000 03

Instrument Parameters
Measurement type:	3-D Scan
Data mode:	Fluorescence
EX  Start WL:	200.0 nm
EX  End WL:	450.0 nm
EX Sampling Interval:	5.0 nm
EM  Start WL:	250.0 nm
EM  End WL:	600.0 nm
EM Sampling Interval:	2.0 nm
Scan speed:	12000 nm/min
EX Slit:	5.0 nm
EM Slit:	5.0 nm
PMT Voltage:	700 V
Response:	0.01 s
Corrected spectra:	On
Shutter control:	On
Contour interval:	10.000

Instrumental Response
EX (200 to 600nm)  Slit:5.0/20.0nm  PMT Voltage:400V
EM (200 to 600nm)  Slit:5.0/20.0nm  PMT Voltage:250V
EM (500 to 900nm)  None
EX (500 to 900nm)  None

Data Points
	200.000	205.000	210.000	215.000	220.000	225.000	230.000	235.000	240.000	245.000	250.000	255.000	260.000	265.000	270.000	275.000	280.000	285.000	290.000	295.000	300.000	305.000	310.000	315.000	320.000	325.000	330.000	335.000	340.000	345.000	350.000	355.000	360.000	365.000	370.000	375.000	380.000	385.000	390.000	395.000	400.000	405.000	410.000	415.000	420.000	425.000	430.000	435.000	440.000	445.000	450.000
250.0	435.6	277.0	171.0	144.2	102.2	132.1	355.5	181.3	55.57	 2478	9999.9	 3980	66.56	11.89	8.088	7.222	6.872	5.494	4.321	4.312	3.908	3.828	3.136	3.130	3.117	2.851	2.434	2.907	2.845	2.874	2.649	2.021	2.244	2.319	2.394	1.958	2.308	1.915	1.954	1.891	1.887	1.850	1.723	1.615	1.603	1.610	1.285	1.171	1.274	1.260	1.177
252.0	418.5	264.6	222.5	178.3	100.8	102.0	278.2	303.4	69.47	569.7	 6849	 8926	 1108	13.41	9.476	7.009	6.832	5.423	5.271	4.489	3.881	4.368	3.471	3.011	2.735	2.607	2.713	2.620	2.239	2.864	2.769	2.586	2.264	2.507	2.542	2.028	1.725	1.683	1.836	2.073	1.858	1.941	2.029	1.561	1.568	1.262	1.171	1.450	1.350	1.052	0.890
254.0	490.4	348.9	245.5	177.0	118.7	81.25	188.3	341.1	121.2	124.1	 3231	9999.9	 3540	75.39	10.33	7.003	6.784	5.351	5.965	4.343	4.122	4.257	3.376	3.301	3.454	2.450	2.742	2.481	2.726	2.451	2.483	2.571	2.564	2.421	2.228	1.796	2.135	2.086	2.134	1.966	2.076	1.808	1.666	1.908	1.701	1.117	1.322	1.317	1.102	1.091	1.150
256.0	467.4	252.5	219.9	144.2	117.1	72.84	106.8	324.4	212.9	52.53	962.4	 9123	 7704	582.3	11.27	10.74	6.780	6.618	5.550	4.363	3.769	3.483	3.077	3.277	3.605	2.934	2.942	3.098	2.429	2.681	2.087	2.303	2.656	2.218	2.016	2.223	1.820	2.184	1.973	1.699	2.292	1.987	1.825	1.895	1.602	1.516	1.367	1.204	1.204	1.076	0.927
258.0	466.4	329.4	232.9	176.3	107.2	67.43	69.86	243.9	310.7	63.97	206.3	 5065	9999.9	 2414	23.68	10.67	7.147	6.318	5.517	5.086	3.849	3.507	3.681	3.294	2.428	2.520	2.666	2.182	2.726	2.640	2.301	2.458	2.181	2.309	2.190	2.218	2.102	2.013	1.952	1.942	1.757	1.790	2.149	1.757	1.570	1.510	1.313	1.406	1.469	1.440	1.376
260.0	532.7	311.9	235.6	169.3	121.9	77.12	62.54	156.3	364.1	115.7	65.22	 1839	9999.9	 6200	212.6	10.57	8.435	5.836	6.419	5.692	4.533	3.376	3.928	2.935	3.077	2.850	2.852	2.400	2.637	2.730	2.114	2.404	2.247	2.207	2.432	2.151	2.262	1.779	1.840	1.856	1.743	1.658	1.720	1.909	1.577	1.484	1.284	1.394	1.186	0.997	1.250
262.0	562.3	333.2	258.1	173.3	112.2	54.98	60.23	80.73	354.8	206.2	41.89	450.5	 7841	9999.9	 1263	12.30	8.269	8.120	5.514	5.274	4.307	4.122	4.094	3.476	2.924	3.186	2.916	2.995	2.321	2.899	2.433	2.253	2.305	2.345	2.333	1.990	2.320	2.196	1.973	2.082	1.859	1.505	1.934	1.832	1.720	1.663	1.415	1.424	0.948	1.131	1.076
264.0	568.6	293.8	232.8	202.5	133.4	82.44	57.12	51.45	249.9	308.5	60.76	94.05	 3604	9999.9	 4298	79.65	9.064	7.054	7.126	5.408	4.174	4.140	3.319	3.592	3.080	2.955	3.025	2.617	2.411	2.369	1.948	2.144	2.466	2.395	2.167	2.442	2.050	2.038	1.576	2.111	2.119	1.738	1.767	1.875	1.763	1.697	1.795	1.250	1.095	1.258	0.972
266.0	555.2	278.4	262.1	169.0	109.0	102.2	52.95	50.01	146.1	366.5	114.7	43.89	 1064	9999.9	 9534	634.3	11.36	7.917	7.207	5.857	5.116	4.248	3.782	3.077	2.973	2.697	2.697	2.751	2.606	2.345	3.000	2.207	2.538	2.333	2.444	2.643	2.313	2.048	1.788	2.052	2.052	1.758	1.783	1.982	1.593	1.632	1.885	1.215	1.216	1.155	1.326
268.0	468.8	307.1	248.0	150.5	145.9	85.25	70.94	46.25	72.18	336.6	216.7	36.70	231.3	 5792	9999.9	 2720	21.37	9.002	7.481	6.230	5.340	4.429	3.792	3.841	3.088	2.794	2.643	2.682	2.657	2.355	2.439	2.061	2.607	1.972	2.219	2.128	2.047	1.807	1.711	1.871	1.758	1.644	1.737	1.890	1.657	1.877	1.607	1.355	1.333	1.404	1.213
270.0	507.3	330.5	240.2	206.7	126.0	101.0	64.30	41.70	51.38	251.7	323.8	58.93	60.44	 2031	9999.9	 7615	211.6	10.10	7.916	6.715	5.118	4.835	3.756	3.148	2.980	2.962	2.811	3.221	2.916	2.536	2.461	2.262	2.510	2.036	2.596	2.077	2.087	1.710	2.207	1.748	1.857	1.659	1.677	1.894	2.136	1.837	1.573	1.647	1.346	1.312	1.150
272.0	492.4	339.9	273.9	220.4	155.0	90.50	55.41	43.33	35.64	139.4	369.4	120.7	36.07	499.0	 8565	9999.9	 1380	12.85	7.949	7.252	5.775	5.472	3.650	3.698	3.631	2.740	3.003	2.686	2.664	2.526	2.358	2.133	2.253	2.191	2.410	2.092	2.124	1.951	2.070	1.937	1.792	1.687	1.783	1.630	1.654	2.035	1.745	1.543	1.512	1.187	1.475
274.0	454.9	381.9	249.6	183.7	152.6	72.24	64.98	45.07	36.11	74.39	339.4	227.0	34.51	105.4	 3606	9999.9	 5386	73.12	8.567	6.427	5.425	5.773	4.054	4.327	3.343	3.486	2.920	2.703	2.862	3.013	2.348	2.532	2.877	2.224	2.343	1.984	2.099	1.903	2.146	1.654	1.852	1.450	1.805	2.038	1.915	1.647	1.914	1.591	1.476	1.150	1.202
276.0	560.1	371.5	244.9	249.8	151.9	75.08	68.21	49.52	37.54	40.44	227.7	336.5	62.31	37.73	 1004	9999.9	9999.9	609.1	9.785	7.920	6.233	5.338	4.585	3.631	3.779	3.117	2.921	2.929	2.640	2.765	2.404	2.626	2.654	2.134	2.550	2.234	1.836	1.990	2.172	1.792	1.448	2.178	1.642	2.141	2.234	1.807	1.839	1.696	1.323	1.420	1.040
278.0	539.9	349.1	295.0	213.6	143.2	108.7	66.18	52.00	37.67	33.82	111.1	392.3	116.0	31.01	205.9	 5761	9999.9	 3130	21.04	9.006	5.731	5.505	4.503	4.077	3.814	3.524	3.159	2.397	2.387	2.831	2.303	2.186	2.372	1.857	2.653	2.446	2.132	2.426	2.317	1.762	1.836	1.833	1.844	1.659	2.006	2.044	1.819	1.883	1.556	1.441	1.019
280.0	530.6	369.1	321.0	215.2	151.5	116.4	61.91	56.01	31.84	31.76	60.88	346.6	216.5	35.92	56.23	 1882	9999.9	 9090	212.5	10.53	6.989	6.141	4.913	4.844	3.488	3.036	3.038	2.670	2.830	2.579	2.316	2.416	2.262	2.499	2.288	2.139	2.529	1.798	2.062	1.969	1.775	1.775	1.876	1.918	1.775	1.885	1.768	1.770	1.611	1.666	1.200
282.0	499.3	369.1	326.6	223.6	181.8	115.0	69.24	49.85	40.53	29.18	35.22	213.4	352.7	56.63	34.15	439.4	 9052	9999.9	 1530	13.69	7.764	6.275	5.979	5.000	4.432	3.847	2.857	2.824	2.671	2.833	2.362	2.651	2.430	2.084	1.969	2.206	2.218	2.150	1.882	1.908	1.654	1.884	1.858	2.067	2.005	1.748	1.840	1.590	1.516	1.822	1.437
284.0	585.4	481.8	358.1	227.6	170.0	121.2	76.37	47.87	38.97	28.70	27.88	112.0	406.6	126.8	31.18	100.3	 3676	9999.9	 6048	73.54	9.497	6.539	5.000	5.122	3.861	3.540	3.245	3.027	2.772	2.721	2.506	2.588	2.621	2.375	1.981	2.025	2.226	1.840	1.840	1.586	1.655	1.910	2.137	2.096	1.777	1.641	1.732	1.802	1.638	1.972	1.399
286.0	651.1	398.5	378.1	245.6	152.2	148.4	83.07	52.06	44.06	28.92	24.09	51.52	349.1	239.8	41.93	45.87	966.9	9999.9	9999.9	685.0	10.36	7.260	5.909	5.060	4.731	3.907	3.176	2.613	3.089	2.606	2.670	2.364	2.490	2.223	2.298	2.227	2.086	2.174	2.060	1.923	1.780	1.985	2.089	1.800	1.812	1.585	1.806	1.570	1.566	1.808	1.234
288.0	612.1	408.0	365.8	252.2	185.7	138.4	96.82	60.47	41.01	30.43	27.41	35.33	232.2	354.0	64.56	39.48	204.3	 6414	9999.9	 3503	18.58	7.744	6.750	6.371	4.859	4.044	3.474	3.135	3.228	3.037	2.722	2.351	2.201	2.147	2.040	2.380	2.226	2.004	2.100	1.804	2.069	2.079	2.067	1.913	1.858	1.508	1.760	1.757	1.730	1.635	1.379
290.0	634.4	474.0	329.4	244.9	234.3	141.5	110.7	78.37	46.98	32.76	26.94	27.32	128.3	400.1	136.3	41.10	66.89	 2087	9999.9	9999.9	175.4	9.654	7.526	6.662	5.127	4.419	3.605	3.288	3.172	2.976	2.759	2.678	2.743	2.190	2.303	2.128	2.151	2.085	1.937	1.998	2.085	2.043	1.641	1.634	1.688	1.972	2.020	1.529	1.561	1.711	1.390
292.0	702.2	477.0	354.6	282.2	229.3	179.0	114.9	75.69	52.09	33.08	31.72	29.95	69.75	366.5	245.5	52.50	50.63	468.7	9999.9	9999.9	 1368	12.69	8.413	6.862	4.890	4.420	3.797	3.110	3.395	2.862	2.951	2.772	2.917	2.063	2.321	2.527	2.151	1.799	1.972	2.097	2.095	2.189	1.839	1.841	1.718	1.695	1.748	1.860	1.798	1.634	1.782
294.0	758.8	416.3	412.1	335.0	254.1	206.5	134.9	87.68	44.42	35.67	37.47	34.60	47.19	244.1	362.2	84.13	50.60	114.0	 4058	9999.9	 6085	50.00	9.345	6.636	5.484	4.363	3.834	3.686	3.285	2.809	3.021	2.474	2.232	2.209	2.286	2.366	2.116	2.105	2.072	2.134	1.943	1.844	1.921	1.803	1.608	1.744	1.941	1.968	1.867	1.666	1.806
296.0	784.9	508.8	413.5	312.9	243.8	200.6	144.2	88.73	50.70	41.88	38.96	29.96	40.07	136.9	423.3	157.0	51.45	59.86	 1002	9999.9	9999.9	550.4	11.75	7.770	6.238	4.763	4.239	3.536	3.263	3.194	2.742	2.417	2.101	2.265	2.487	2.334	2.096	2.250	2.156	1.751	1.931	1.900	2.028	1.810	1.843	1.934	1.868	1.501	1.861	1.698	1.362
298.0	764.1	498.7	337.4	349.7	278.7	217.4	153.6	96.90	60.90	43.96	37.29	36.38	44.98	79.09	371.0	274.4	68.58	54.92	204.7	 6174	9999.9	 3357	19.66	8.229	6.125	5.244	4.209	4.105	3.449	2.885	3.037	2.522	2.401	2.486	2.230	2.517	2.355	2.047	2.072	2.069	2.160	2.189	1.861	1.848	1.793	1.927	1.777	1.739	1.719	1.867	1.688
300.0	812.7	529.9	429.0	325.0	302.1	229.7	173.7	113.8	68.58	40.99	43.17	41.78	46.01	61.20	256.2	392.3	96.24	61.94	69.03	 1906	9999.9	9999.9	174.3	9.844	6.724	5.094	4.847	3.979	3.945	3.004	3.171	2.551	2.381	2.624	2.412	2.082	2.282	2.552	2.321	2.108	2.131	1.902	2.136	1.861	2.125	1.956	1.783	1.910	1.582	1.996	1.728
302.0	707.0	495.2	395.1	316.8	297.5	235.0	189.3	125.8	67.69	46.97	45.80	41.41	50.04	60.87	155.0	427.6	164.3	63.67	52.24	405.1	9999.9	9999.9	 1485	12.49	8.736	5.579	4.835	3.809	3.645	3.015	3.419	2.346	2.594	2.550	2.327	2.120	2.081	1.957	1.825	1.944	1.630	2.027	1.942	1.926	1.878	1.920	1.932	1.916	1.795	1.606	1.926
304.0	677.9	460.7	473.9	337.5	310.3	276.5	195.6	112.9	72.90	51.78	55.48	46.79	49.22	64.73	105.4	372.7	276.1	71.97	52.76	95.26	 4354	9999.9	 6330	49.43	8.308	6.594	5.343	4.293	3.913	2.878	3.061	2.968	2.827	2.716	2.640	2.092	2.206	2.367	1.982	1.994	1.768	2.145	2.072	2.080	1.972	1.718	1.799	1.707	1.802	1.881	1.935
306.0	697.1	524.3	402.4	408.3	317.4	287.1	219.9	124.2	73.09	56.23	49.95	51.59	52.24	64.33	87.34	268.5	385.1	99.27	55.57	49.03	 1092	9999.9	9999.9	599.7	10.47	6.969	5.563	4.487	4.765	3.428	3.437	3.049	2.877	2.284	2.421	2.279	2.071	2.334	2.065	1.837	2.035	1.953	2.050	2.065	1.920	1.766	1.929	1.754	1.687	2.077	1.701
308.0	805.7	630.8	459.7	382.8	346.8	311.0	225.5	140.2	85.50	57.65	48.46	57.36	60.62	68.34	83.39	170.8	438.7	162.0	58.22	41.94	205.3	 7115	9999.9	 3634	17.76	8.185	6.517	5.511	3.797	3.247	3.175	3.097	2.864	2.617	2.459	2.459	2.193	2.180	2.304	2.091	1.776	2.254	2.206	2.180	2.030	1.978	2.229	1.995	1.628	2.046	1.599
310.0	794.6	667.3	506.8	383.9	356.7	336.3	245.9	132.1	83.59	65.54	50.78	56.06	67.07	79.51	86.97	124.5	385.5	267.1	64.61	43.41	57.88	 2236	9999.9	9999.9	170.8	10.45	6.950	5.436	4.459	3.775	3.394	3.258	2.752	2.941	2.529	2.370	1.961	2.128	2.049	2.121	1.953	1.967	2.168	1.857	2.103	1.815	1.941	1.681	1.864	2.110	1.698
312.0	873.6	562.1	548.0	435.0	387.4	357.4	245.8	119.4	92.65	64.66	57.21	57.59	69.32	79.59	92.17	105.6	279.5	368.9	93.93	45.23	36.37	451.2	9999.9	9999.9	 1535	11.85	7.214	5.858	5.034	3.978	3.984	3.073	3.123	3.084	2.230	2.302	2.470	2.088	2.192	2.129	2.162	2.329	2.287	2.025	1.982	1.947	1.838	1.655	1.640	2.112	1.947
314.0	750.7	674.8	553.3	408.2	377.1	339.4	253.1	158.6	98.52	69.96	62.62	63.91	72.71	86.37	99.36	108.4	192.2	417.7	149.5	52.37	32.14	91.87	 4183	9999.9	 6616	45.26	9.145	6.423	5.300	4.840	3.685	3.324	2.789	2.673	2.579	2.476	2.380	2.113	2.027	2.042	2.105	2.016	2.391	1.997	1.776	1.801	1.849	1.873	1.907	2.205	2.234
316.0	820.7	631.6	575.6	391.4	400.3	378.2	269.4	158.7	92.05	73.76	65.70	72.45	78.70	89.54	100.6	114.3	147.4	376.5	251.2	58.97	32.08	36.67	 1006	9999.9	9999.9	513.1	10.51	7.271	5.205	5.032	3.732	3.706	3.225	3.169	2.448	2.302	2.273	2.141	2.124	2.194	2.126	2.114	2.183	2.333	1.850	2.440	2.201	2.231	1.806	1.895	1.932
318.0	801.5	576.9	546.2	483.7	392.9	369.1	300.8	174.8	98.98	70.39	70.51	74.64	82.11	98.27	108.4	121.3	129.1	284.3	345.4	79.69	31.47	27.06	179.9	 6476	9999.9	 3233	17.79	7.066	5.564	4.883	4.426	3.742	3.632	2.881	2.452	2.759	2.347	2.256	2.425	2.358	2.191	1.742	2.326	2.148	1.934	2.198	2.313	1.820	1.798	2.122	1.817
320.0	834.7	708.1	518.8	517.1	435.7	438.9	298.8	181.4	105.5	75.84	74.07	70.65	86.25	98.42	113.7	122.5	130.5	196.7	396.3	132.1	36.35	25.68	46.34	 1967	9999.9	9999.9	154.5	9.891	6.418	5.359	4.267	3.421	3.193	2.889	2.931	2.557	2.510	2.588	2.172	1.928	2.216	2.089	2.185	2.473	2.062	2.328	2.113	2.042	2.496	1.970	2.208
322.0	762.3	615.2	475.4	480.4	423.2	445.2	315.7	195.6	104.7	65.30	72.35	79.88	93.22	107.7	123.4	125.0	127.6	149.0	354.5	219.6	39.98	26.38	26.29	376.6	9999.9	9999.9	 1472	12.47	7.057	5.948	4.772	4.029	3.446	3.290	2.939	2.218	2.309	2.306	2.098	2.247	2.241	2.035	2.051	2.128	2.318	2.460	2.628	2.181	1.945	2.179	1.603
324.0	849.8	590.5	549.4	519.9	452.5	439.2	331.4	191.5	102.5	90.06	74.52	88.02	95.07	105.7	121.2	126.1	135.4	131.8	260.7	303.7	51.79	24.49	23.38	76.67	 4072	9999.9	 6251	40.82	7.841	6.331	5.864	4.232	3.484	3.150	2.519	2.664	2.345	2.245	2.094	2.477	2.311	2.285	2.104	1.968	2.399	2.285	2.385	2.383	2.207	2.320	1.972
326.0	836.0	676.1	537.1	532.6	484.9	430.2	302.7	210.4	114.2	95.50	79.85	86.73	103.7	110.7	127.7	125.5	131.4	129.2	180.9	341.6	96.35	25.66	21.09	29.83	957.1	9999.9	9999.9	537.7	9.992	6.902	5.457	4.116	3.808	3.336	2.807	2.816	2.782	2.241	2.195	1.977	2.299	2.294	1.963	2.249	2.176	2.212	2.051	2.542	2.291	2.152	2.187
328.0	760.4	613.2	533.7	523.1	473.7	449.2	335.2	200.6	110.4	81.70	79.51	87.97	104.5	119.5	120.4	131.8	138.6	121.6	133.2	307.0	162.4	27.01	21.54	22.44	168.3	 6699	9999.9	 3297	16.97	7.532	5.659	4.823	3.593	3.265	2.950	2.922	2.773	2.486	2.609	2.077	2.298	2.209	2.289	1.990	2.139	2.087	1.853	2.163	2.184	2.046	1.941
330.0	822.0	661.5	534.5	510.3	480.7	466.8	315.9	178.1	126.6	85.23	82.82	92.73	107.0	116.8	126.6	134.0	137.1	127.9	111.1	232.0	238.7	39.05	21.02	19.50	43.35	 2128	9999.9	9999.9	149.9	9.521	6.292	5.342	4.435	3.143	3.110	2.770	2.841	2.611	2.189	2.229	2.135	2.256	2.445	2.422	1.999	1.984	2.298	2.080	2.550	2.178	2.170
332.0	829.1	654.4	477.4	511.1	470.0	436.1	330.4	179.8	119.2	96.25	90.42	87.03	107.6	114.1	129.5	135.2	138.0	124.8	107.7	153.2	291.6	73.41	20.52	19.43	22.22	417.9	9999.9	9999.9	 1395	12.07	6.981	5.565	4.472	3.582	3.532	3.245	2.804	2.832	2.326	2.183	2.228	2.462	2.019	2.194	2.114	2.027	2.042	2.110	2.335	2.351	2.043
334.0	845.9	657.1	554.9	502.3	453.3	442.4	339.7	189.3	129.5	101.8	98.25	95.51	105.0	118.6	135.6	136.7	138.0	127.0	106.0	105.0	278.5	136.5	23.55	20.04	20.27	81.12	 4085	9999.9	 6051	36.19	8.210	5.455	4.682	3.922	3.638	3.484	2.530	2.583	2.371	2.118	2.265	2.250	2.392	2.242	2.102	1.872	2.092	2.480	2.323	2.230	2.126
336.0	836.8	610.6	527.3	530.2	473.3	443.1	313.6	199.9	123.0	96.62	97.84	97.26	107.8	113.6	125.2	131.5	139.9	129.4	107.0	81.04	210.9	208.2	36.21	19.44	18.91	28.48	970.3	9999.9	9999.9	489.7	9.187	7.165	4.848	4.407	3.908	3.116	3.176	2.525	2.437	2.043	1.985	2.320	2.149	2.194	1.916	1.933	2.146	2.216	2.097	2.199	2.165
338.0	 1045	663.1	534.9	495.6	426.5	435.2	322.3	203.1	113.9	96.77	97.79	100.2	107.7	116.3	123.2	129.9	135.4	123.3	104.9	77.04	136.3	254.9	63.43	18.74	17.59	19.66	167.3	 6467	9999.9	 3061	16.17	7.675	5.561	4.827	3.837	3.043	2.929	2.669	2.425	1.845	1.776	2.342	2.196	2.198	1.973	1.840	2.244	2.077	2.057	2.298	2.294
340.0	895.1	673.3	520.3	498.5	476.6	389.5	331.9	188.3	124.2	99.35	91.64	101.8	118.6	123.1	124.4	131.7	136.9	125.0	103.5	70.36	86.08	248.1	120.1	22.18	17.46	18.91	41.56	 2021	9999.9	 9718	152.0	8.901	6.718	4.944	4.268	3.461	2.984	2.896	2.519	2.795	2.378	2.433	1.897	2.280	1.940	2.006	2.282	1.981	2.350	2.248	2.228
342.0	871.6	708.2	612.2	526.8	475.9	409.5	317.6	185.4	113.5	99.80	104.3	101.3	111.8	118.5	125.5	133.6	135.2	120.1	101.3	72.72	58.53	194.3	181.2	32.07	18.18	18.46	20.15	384.2	 9705	9999.9	 1449	12.31	6.690	5.020	3.925	3.506	3.206	2.714	2.757	2.328	2.182	2.268	1.961	1.910	1.978	1.860	2.299	2.281	2.075	2.274	1.993
344.0	876.0	622.1	546.2	496.4	445.6	415.2	295.3	201.4	122.5	112.1	102.0	104.6	114.0	119.0	120.8	127.1	132.8	124.9	101.1	71.42	52.19	122.0	227.4	59.76	18.89	17.70	17.21	72.91	 3864	9999.9	 5995	38.50	8.667	6.234	4.776	4.011	3.250	3.073	2.797	2.497	2.272	2.397	2.020	2.018	2.189	2.196	2.196	2.238	1.875	2.135	2.150
346.0	740.8	593.5	528.0	536.3	476.0	385.0	314.3	190.3	132.3	102.0	106.2	107.8	116.3	122.1	122.9	128.5	130.3	119.4	101.0	73.41	50.17	74.07	219.6	103.4	20.48	17.61	18.19	26.01	915.6	9999.9	9999.9	507.9	10.34	6.400	5.034	4.370	3.291	3.057	2.905	2.678	2.441	2.144	2.019	2.136	2.378	2.436	2.086	2.064	1.990	2.214	2.165
348.0	635.9	588.7	578.8	455.7	448.7	345.0	297.2	174.6	125.5	112.3	99.95	112.2	108.9	117.2	121.4	124.0	127.2	116.8	99.57	72.39	49.69	51.26	175.3	160.0	28.01	19.44	17.83	18.72	159.1	 6517	9999.9	 2976	16.05	6.627	5.560	4.348	3.622	3.113	2.768	2.534	2.386	2.372	2.173	2.579	2.157	2.096	2.197	1.875	2.214	2.008	1.933
350.0	758.9	578.2	489.0	458.1	429.4	346.5	274.8	184.6	137.9	108.3	102.1	104.2	117.6	116.3	117.7	116.9	124.6	116.6	96.01	69.67	49.67	42.37	115.5	206.3	50.17	19.64	18.46	18.94	39.96	 2102	9999.9	 9201	154.2	9.079	5.554	4.536	3.651	3.171	2.991	2.418	2.551	2.215	2.414	2.388	2.080	2.186	1.972	1.957	1.945	2.051	1.906
352.0	798.8	596.6	513.3	455.4	416.2	363.4	264.9	175.3	143.8	115.0	101.6	108.7	110.7	119.3	113.7	117.6	124.6	108.1	99.85	72.07	51.56	40.37	71.02	204.0	89.70	22.52	19.52	19.46	22.38	408.9	 9340	9999.9	 1402	11.34	6.495	5.332	3.935	3.461	3.172	2.744	2.403	2.144	2.447	2.073	2.278	2.497	2.454	2.038	1.992	1.960	1.931
354.0	752.1	589.7	422.3	407.2	411.0	334.6	277.2	181.0	138.4	113.3	115.7	111.9	118.1	115.5	113.4	118.0	120.2	110.7	97.51	71.05	52.29	41.12	48.54	164.9	142.0	29.99	20.83	20.40	20.01	79.05	 3733	9999.9	 5765	39.55	7.210	5.525	4.392	3.550	2.972	2.767	2.627	2.636	2.213	2.165	2.324	2.136	2.416	2.149	2.290	2.471	2.077
356.0	795.5	512.0	448.0	440.1	372.4	367.2	284.3	178.4	125.8	111.9	112.5	112.0	111.8	113.2	117.2	112.9	115.1	104.6	92.73	69.71	52.08	40.83	41.64	112.0	179.1	45.16	22.08	21.01	20.23	29.22	905.3	9999.9	9999.9	512.2	9.662	5.718	4.675	3.777	3.171	2.566	2.522	2.599	2.393	2.641	2.229	2.052	2.306	2.214	2.256	2.272	1.953
358.0	856.9	463.2	579.1	442.4	418.7	321.7	265.9	183.9	137.7	111.4	107.9	120.1	118.2	118.9	114.0	112.8	112.7	106.7	94.82	72.22	55.18	42.78	38.94	72.54	187.6	78.01	25.76	20.51	20.17	20.74	159.2	 6190	9999.9	 2953	16.01	7.083	4.737	4.393	3.233	3.063	2.869	2.484	2.542	2.342	2.650	2.315	2.082	2.124	2.278	2.188	1.852
360.0	780.7	541.9	507.1	436.2	373.0	340.2	271.9	198.1	135.9	117.5	115.2	119.1	119.3	115.1	116.6	115.2	114.1	102.4	92.22	74.78	55.04	45.17	41.34	50.92	163.1	124.8	30.66	24.05	22.23	20.46	41.10	 1989	9999.9	 8810	146.5	8.286	5.581	4.650	3.918	3.208	2.606	2.674	2.328	2.355	2.517	2.515	2.256	2.206	2.213	1.957	2.148
362.0	673.5	549.1	463.3	427.9	412.6	383.9	245.7	188.2	139.6	127.9	120.4	127.6	124.8	113.3	118.5	112.4	110.8	103.1	91.53	72.44	56.61	48.68	42.15	44.00	119.3	164.1	46.42	27.14	24.08	21.73	23.36	389.3	 8965	9999.9	 1350	11.68	6.648	4.934	3.946	3.422	3.018	2.749	2.436	2.333	2.155	2.334	2.068	2.114	1.993	2.386	1.793
364.0	636.7	601.2	513.8	407.9	405.7	323.4	246.8	185.3	150.0	132.3	127.9	123.4	116.1	113.8	113.8	111.0	108.7	104.9	93.02	67.56	57.21	48.01	44.84	43.60	81.03	177.6	73.99	29.37	26.07	23.64	20.76	75.03	 3688	9999.9	 5259	39.60	7.118	5.175	4.575	3.431	2.829	3.007	2.344	2.424	2.268	2.299	2.381	2.243	2.118	2.555	1.982
366.0	716.9	602.9	459.7	446.2	394.0	332.1	269.4	174.7	142.3	137.5	123.5	121.2	114.7	121.5	113.5	109.4	109.3	105.2	93.39	72.35	61.78	51.67	46.02	44.88	57.84	163.6	114.7	33.19	27.75	24.89	20.82	27.68	903.0	9999.9	9999.9	521.3	9.746	6.155	4.711	3.645	3.193	2.629	3.092	2.465	2.255	2.213	2.274	2.475	2.292	1.994	2.031
